#Sample	Not specified
RF-Frequency	Timestamp	Photon Counter1 CH A	Photon Counter1 CH B	Photon Counter1 Ratio
Hz	s since 1904-01-01 12amUTC	counts	counts	a.u.
2850000000.00	3728973964.17	894720.000000	897252.000000	0.997178050314
2850040000.00	3728973965.45	897702.000000	898145.000000	0.999506761158
2850080000.00	3728973966.72	897457.000000	899626.000000	0.997588998095
2850120000.00	3728973968.00	905441.000000	905632.000000	0.999789097558
2850160000.00	3728973969.30	904090.000000	904997.000000	0.998997786733
2850200000.00	3728973970.58	904626.000000	905946.000000	0.998542959514
2850240000.00	3728973971.86	904670.000000	905672.000000	0.998893639198
2850280000.00	3728973973.14	908869.000000	911073.000000	0.997580874420
2850320000.00	3728973974.42	910486.000000	911319.000000	0.999085940269
2850360000.00	3728973975.69	913388.000000	916295.000000	0.996827440944
2850400000.00	3728973976.99	914140.000000	915141.000000	0.998906179485
2850440000.00	3728973978.26	916763.000000	917334.000000	0.999377544057
2850480000.00	3728973979.54	914088.000000	915692.000000	0.998248319304
2850520000.00	3728973980.82	914098.000000	912673.000000	1.00156134782
2850560000.00	3728973982.11	913521.000000	915265.000000	0.998094540925
2850600000.00	3728973983.40	914442.000000	914899.000000	0.999500491311
2850640000.00	3728973984.67	913546.000000	915538.000000	0.997824230125
2850680000.00	3728973985.94	914725.000000	915977.000000	0.998633153453
2850720000.00	3728973987.22	913598.000000	913851.000000	0.999723149616
2850760000.00	3728973988.49	916423.000000	916564.000000	0.999846164589
2850800000.00	3728973989.77	917524.000000	919562.000000	0.997783727470
2850840000.00	3728973991.04	915798.000000	919006.000000	0.996509271974
2850880000.00	3728973992.31	916388.000000	918829.000000	0.997343357687
2850920000.00	3728973993.60	912499.000000	913079.000000	0.999364786618
2850960000.00	3728973994.88	919885.000000	921635.000000	0.998101200584
2851000000.00	3728973996.17	922909.000000	924749.000000	0.998010270895
2851040000.00	3728973997.44	919382.000000	921145.000000	0.998086077653
2851080000.00	3728973998.73	921911.000000	920212.000000	1.00184631368
2851120000.00	3728974000.00	917490.000000	919600.000000	0.997705524141
2851160000.00	3728974001.28	916996.000000	919651.000000	0.997113035271
2851200000.00	3728974002.56	918478.000000	919929.000000	0.998422704361
2851240000.00	3728974003.84	918034.000000	919683.000000	0.998206990887
2851280000.00	3728974005.12	916788.000000	917696.000000	0.999010565590
2851320000.00	3728974006.39	923817.000000	925117.000000	0.998594772337
2851360000.00	3728974007.66	922699.000000	923188.000000	0.999470313739
2851400000.00	3728974008.93	921297.000000	922400.000000	0.998804206418
2851440000.00	3728974010.22	922960.000000	924801.000000	0.998009301461
2851480000.00	3728974011.50	919419.000000	923237.000000	0.995864550489
2851520000.00	3728974012.77	928974.000000	929249.000000	0.999704062097
2851560000.00	3728974014.05	932487.000000	933767.000000	0.998629208357
2851600000.00	3728974015.32	934166.000000	933637.000000	1.00056660137
2851640000.00	3728974016.61	933539.000000	936048.000000	0.997319581902
2851680000.00	3728974017.89	932754.000000	933294.000000	0.999421404188
2851720000.00	3728974019.17	930758.000000	931856.000000	0.998821706358
2851760000.00	3728974020.46	934106.000000	934933.000000	0.999115444636
2851800000.00	3728974021.75	933507.000000	934298.000000	0.999153375047
2851840000.00	3728974023.04	931929.000000	932013.000000	0.999909872502
2851880000.00	3728974024.32	927255.000000	929082.000000	0.998033542787
2851920000.00	3728974025.59	930465.000000	930509.000000	0.999952714052
2851960000.00	3728974026.87	931156.000000	931766.000000	0.999345329192
2852000000.00	3728974028.16	926754.000000	929008.000000	0.997573756093
2852040000.00	3728974029.43	928997.000000	931400.000000	0.997420012884
2852080000.00	3728974030.71	933845.000000	931542.000000	1.00247224494
2852120000.00	3728974031.99	931737.000000	931892.000000	0.999833671713
2852160000.00	3728974033.27	932734.000000	932794.000000	0.999935677116
2852200000.00	3728974034.56	932577.000000	932816.000000	0.999743786556
2852240000.00	3728974035.83	935521.000000	938669.000000	0.996646315155
2852280000.00	3728974037.11	934870.000000	936809.000000	0.997930207758
2852320000.00	3728974038.40	933438.000000	934046.000000	0.999349068461
2852360000.00	3728974039.68	931700.000000	934388.000000	0.997123250727
2852400000.00	3728974040.96	936517.000000	935615.000000	1.00096407176
2852440000.00	3728974042.23	935465.000000	937236.000000	0.998110401222
2852480000.00	3728974043.51	934922.000000	936138.000000	0.998701046213
2852520000.00	3728974044.80	933019.000000	935918.000000	0.996902506416
2852560000.00	3728974046.08	931964.000000	933953.000000	0.997870342512
2852600000.00	3728974047.35	932501.000000	933270.000000	0.999176015515
2852640000.00	3728974048.65	932850.000000	935077.000000	0.997618377952
2852680000.00	3728974049.93	935897.000000	937500.000000	0.998290133333
2852720000.00	3728974051.21	934608.000000	936445.000000	0.998038325796
2852760000.00	3728974052.47	930091.000000	930958.000000	0.999068701273
2852800000.00	3728974053.76	933359.000000	935286.000000	0.997939667652
2852840000.00	3728974055.05	933946.000000	935284.000000	0.998569418487
2852880000.00	3728974056.33	934230.000000	936818.000000	0.997237457009
2852920000.00	3728974057.60	935280.000000	937874.000000	0.997234170048
2852960000.00	3728974058.89	934673.000000	937432.000000	0.997056853190
2853000000.00	3728974060.17	935884.000000	938083.000000	0.997655857744
2853040000.00	3728974061.44	936384.000000	936627.000000	0.999740558408
2853080000.00	3728974062.72	936580.000000	938638.000000	0.997807461449
2853120000.00	3728974064.02	936669.000000	940594.000000	0.995827105000
2853160000.00	3728974065.29	935397.000000	936839.000000	0.998460781415
2853200000.00	3728974066.56	936952.000000	937802.000000	0.999093625307
2853240000.00	3728974067.83	936949.000000	939602.000000	0.997176464077
2853280000.00	3728974069.12	935661.000000	937028.000000	0.998541132175
2853320000.00	3728974070.39	940953.000000	942503.000000	0.998355442900
2853360000.00	3728974071.68	951067.000000	951324.000000	0.999729850188
2853400000.00	3728974072.95	947346.000000	948275.000000	0.999020326382
2853440000.00	3728974074.23	945934.000000	944617.000000	1.00139421586
2853480000.00	3728974075.50	944313.000000	944149.000000	1.00017370140
2853520000.00	3728974076.80	941305.000000	942722.000000	0.998496905769
2853560000.00	3728974078.08	934346.000000	936380.000000	0.997827804951
2853600000.00	3728974079.36	936107.000000	937763.000000	0.998234095395
2853640000.00	3728974080.64	937665.000000	938108.000000	0.999527772922
2853680000.00	3728974081.91	938643.000000	939087.000000	0.999527200355
2853720000.00	3728974083.21	939899.000000	941772.000000	0.998011195916
2853760000.00	3728974084.48	948310.000000	951344.000000	0.996810827629
2853800000.00	3728974085.76	948442.000000	950439.000000	0.997898865682
2853840000.00	3728974087.03	945654.000000	948733.000000	0.996754619055
2853880000.00	3728974088.31	946725.000000	948782.000000	0.997831957183
2853920000.00	3728974089.58	948423.000000	949565.000000	0.998797344047
2853960000.00	3728974090.86	950994.000000	951608.000000	0.999354776336
2854000000.00	3728974092.14	944310.000000	947230.000000	0.996917327365
2854040000.00	3728974093.41	947267.000000	948845.000000	0.998336925420
2854080000.00	3728974094.69	951975.000000	951982.000000	0.999992646920
2854120000.00	3728974095.97	951289.000000	952196.000000	0.999047465018
2854160000.00	3728974097.26	948285.000000	949092.000000	0.999149713621
2854200000.00	3728974098.54	948757.000000	950614.000000	0.998046525719
2854240000.00	3728974099.82	950246.000000	951319.000000	0.998872092327
2854280000.00	3728974101.10	950701.000000	951490.000000	0.999170774259
2854320000.00	3728974102.39	952139.000000	954162.000000	0.997879814958
2854360000.00	3728974103.66	949077.000000	952384.000000	0.996527661111
2854400000.00	3728974104.94	949380.000000	952032.000000	0.997214379349
2854440000.00	3728974106.22	950150.000000	951743.000000	0.998326228824
2854480000.00	3728974107.50	951571.000000	952883.000000	0.998623125819
2854520000.00	3728974108.78	951339.000000	953606.000000	0.997622707911
2854560000.00	3728974110.05	951367.000000	952283.000000	0.999038101069
2854600000.00	3728974111.33	950308.000000	950693.000000	0.999595032255
2854640000.00	3728974112.62	951183.000000	954104.000000	0.996938488886
2854680000.00	3728974113.89	949921.000000	952279.000000	0.997523834927
2854720000.00	3728974115.16	949231.000000	950870.000000	0.998276315374
2854760000.00	3728974116.45	949642.000000	953202.000000	0.996265219754
2854800000.00	3728974117.72	951714.000000	950655.000000	1.00111396879
2854840000.00	3728974119.01	950686.000000	951103.000000	0.999561561682
2854880000.00	3728974120.28	949251.000000	951388.000000	0.997753808120
2854920000.00	3728974121.55	949614.000000	950515.000000	0.999052092813
2854960000.00	3728974122.82	947112.000000	950757.000000	0.996166212818
2855000000.00	3728974124.10	947332.000000	950924.000000	0.996222621366
2855040000.00	3728974125.37	951673.000000	955593.000000	0.995897835166
2855080000.00	3728974126.64	950251.000000	952902.000000	0.997217972047
2855120000.00	3728974127.92	950621.000000	951509.000000	0.999066745559
2855160000.00	3728974129.20	951182.000000	951625.000000	0.999534480494
2855200000.00	3728974130.49	950687.000000	952514.000000	0.998081917956
2855240000.00	3728974131.77	950904.000000	952175.000000	0.998665161341
2855280000.00	3728974133.05	952084.000000	953719.000000	0.998285658564
2855320000.00	3728974134.34	953046.000000	953533.000000	0.999489267807
2855360000.00	3728974135.62	954098.000000	954648.000000	0.999423871416
2855400000.00	3728974136.90	951325.000000	954719.000000	0.996445027280
2855440000.00	3728974138.17	957857.000000	957005.000000	1.00089027748
2855480000.00	3728974139.44	955498.000000	956436.000000	0.999019275728
2855520000.00	3728974140.73	952527.000000	954804.000000	0.997615217364
2855560000.00	3728974142.01	951763.000000	953175.000000	0.998518635088
2855600000.00	3728974143.29	952960.000000	956887.000000	0.995896067143
2855640000.00	3728974144.58	952683.000000	956152.000000	0.996371915762
2855680000.00	3728974145.86	950078.000000	951397.000000	0.998613617659
2855720000.00	3728974147.15	950384.000000	951882.000000	0.998426275526
2855760000.00	3728974148.44	954366.000000	956221.000000	0.998060071887
2855800000.00	3728974149.72	956325.000000	955429.000000	1.00093779862
2855840000.00	3728974150.99	958278.000000	959289.000000	0.998946094451
2855880000.00	3728974152.27	955762.000000	957105.000000	0.998596810172
2855920000.00	3728974153.55	953098.000000	956332.000000	0.996618329199
2855960000.00	3728974154.84	953603.000000	955292.000000	0.998231954209
2856000000.00	3728974156.11	952746.000000	956199.000000	0.996388827012
2856040000.00	3728974157.39	953654.000000	956324.000000	0.997208059193
2856080000.00	3728974158.68	954596.000000	955344.000000	0.999217035958
2856120000.00	3728974159.95	957750.000000	956113.000000	1.00171214072
2856160000.00	3728974161.23	961759.000000	963716.000000	0.997969318762
2856200000.00	3728974162.51	964757.000000	965718.000000	0.999004885484
2856240000.00	3728974163.78	958703.000000	963219.000000	0.995311554278
2856280000.00	3728974165.07	958371.000000	957811.000000	1.00058466649
2856320000.00	3728974166.35	956214.000000	959656.000000	0.996413298098
2856360000.00	3728974167.64	960334.000000	963938.000000	0.996261170324
2856400000.00	3728974168.92	956727.000000	958467.000000	0.998184601035
2856440000.00	3728974170.21	960315.000000	963229.000000	0.996974758858
2856480000.00	3728974171.50	963085.000000	966501.000000	0.996465601174
2856520000.00	3728974172.77	961919.000000	961556.000000	1.00037751311
2856560000.00	3728974174.05	959801.000000	964005.000000	0.995639026769
2856600000.00	3728974175.32	958108.000000	959174.000000	0.998888627090
2856640000.00	3728974176.60	956314.000000	958621.000000	0.997593418045
2856680000.00	3728974177.87	959983.000000	961628.000000	0.998289359295
2856720000.00	3728974179.15	964327.000000	966542.000000	0.997708325143
2856760000.00	3728974180.44	964395.000000	966861.000000	0.997449478260
2856800000.00	3728974181.72	966376.000000	967364.000000	0.998978667802
2856840000.00	3728974183.00	967139.000000	968597.000000	0.998494730006
2856880000.00	3728974184.30	965685.000000	968690.000000	0.996897872384
2856920000.00	3728974185.58	964236.000000	966099.000000	0.998071626200
2856960000.00	3728974186.86	963537.000000	966457.000000	0.996978655026
2857000000.00	3728974188.14	966314.000000	966077.000000	1.00024532206
2857040000.00	3728974189.41	964561.000000	967602.000000	0.996857178881
2857080000.00	3728974190.69	962989.000000	967802.000000	0.995026875332
2857120000.00	3728974191.97	964327.000000	967698.000000	0.996516475181
2857160000.00	3728974193.25	966973.000000	968979.000000	0.997929779696
2857200000.00	3728974194.52	964335.000000	966273.000000	0.997994355632
2857240000.00	3728974195.81	966900.000000	969524.000000	0.997293517231
2857280000.00	3728974197.09	963908.000000	968367.000000	0.995395340816
2857320000.00	3728974198.38	965957.000000	967921.000000	0.997970908783
2857360000.00	3728974199.65	966787.000000	970346.000000	0.996332236130
2857400000.00	3728974200.94	964208.000000	966762.000000	0.997358191571
2857440000.00	3728974202.23	964237.000000	966389.000000	0.997773153461
2857480000.00	3728974203.50	966155.000000	967723.000000	0.998379701629
2857520000.00	3728974204.78	958248.000000	960635.000000	0.997515185268
2857560000.00	3728974206.06	965069.000000	968905.000000	0.996040891522
2857600000.00	3728974207.33	965207.000000	967386.000000	0.997747538211
2857640000.00	3728974208.60	967208.000000	969450.000000	0.997687348497
2857680000.00	3728974209.89	965636.000000	967945.000000	0.997614533884
2857720000.00	3728974211.17	965361.000000	968595.000000	0.996661143202
2857760000.00	3728974212.46	965306.000000	967432.000000	0.997802429525
2857800000.00	3728974213.74	967097.000000	971905.000000	0.995053014441
2857840000.00	3728974215.01	970745.000000	974124.000000	0.996531242429
2857880000.00	3728974216.30	970788.000000	972420.000000	0.998321712840
2857920000.00	3728974217.59	970671.000000	973739.000000	0.996849258374
2857960000.00	3728974218.87	969656.000000	974920.000000	0.994600582612
2858000000.00	3728974220.15	967812.000000	973194.000000	0.994469756287
2858040000.00	3728974221.42	969007.000000	972321.000000	0.996591660573
2858080000.00	3728974222.70	967786.000000	971411.000000	0.996268314853
2858120000.00	3728974223.99	968871.000000	972035.000000	0.996744973175
2858160000.00	3728974225.27	970450.000000	973608.000000	0.996756394771
2858200000.00	3728974226.54	967145.000000	971138.000000	0.995888328950
2858240000.00	3728974227.81	965303.000000	968328.000000	0.996876058526
2858280000.00	3728974229.08	963365.000000	968055.000000	0.995155233948
2858320000.00	3728974230.36	965334.000000	968321.000000	0.996915279127
2858360000.00	3728974231.63	967192.000000	968960.000000	0.998175363276
2858400000.00	3728974232.93	966318.000000	969968.000000	0.996236989262
2858440000.00	3728974234.20	970926.000000	974470.000000	0.996363151251
2858480000.00	3728974235.48	967913.000000	972894.000000	0.994880223334
2858520000.00	3728974236.76	963088.000000	966356.000000	0.996618223512
2858560000.00	3728974238.04	967531.000000	972728.000000	0.994657293714
2858600000.00	3728974239.33	969653.000000	972722.000000	0.996844936169
2858640000.00	3728974240.60	968784.000000	973095.000000	0.995569805620
2858680000.00	3728974241.88	968906.000000	973763.000000	0.995012133343
2858720000.00	3728974243.17	968791.000000	972227.000000	0.996465845939
2858760000.00	3728974244.46	969182.000000	973231.000000	0.995839631085
2858800000.00	3728974245.73	968732.000000	971611.000000	0.997036879986
2858840000.00	3728974247.02	969601.000000	971399.000000	0.998149061302
2858880000.00	3728974248.30	968399.000000	971693.000000	0.996610040414
2858920000.00	3728974249.58	970864.000000	975800.000000	0.994941586391
2858960000.00	3728974250.85	969357.000000	973496.000000	0.995748313296
2859000000.00	3728974252.14	969300.000000	971126.000000	0.998119708462
2859040000.00	3728974253.41	969035.000000	972161.000000	0.996784483229
2859080000.00	3728974254.69	968356.000000	972007.000000	0.996243854211
2859120000.00	3728974255.96	967587.000000	972946.000000	0.994491986195
2859160000.00	3728974257.23	972586.000000	975885.000000	0.996619478730
2859200000.00	3728974258.52	970039.000000	976109.000000	0.993781432197
2859240000.00	3728974259.79	970696.000000	976587.000000	0.993967767337
2859280000.00	3728974261.08	978115.000000	980400.000000	0.997669318645
2859320000.00	3728974262.37	968320.000000	972847.000000	0.995346647520
2859360000.00	3728974263.66	972077.000000	977429.000000	0.994524410469
2859400000.00	3728974264.96	976133.000000	979967.000000	0.996087623359
2859440000.00	3728974266.23	973915.000000	980260.000000	0.993527227470
2859480000.00	3728974267.51	972957.000000	976828.000000	0.996037173382
2859520000.00	3728974268.79	977366.000000	982427.000000	0.994848472202
2859560000.00	3728974270.09	967560.000000	972491.000000	0.994929516057
2859600000.00	3728974271.36	967410.000000	972719.000000	0.994542103115
2859640000.00	3728974272.64	967286.000000	972374.000000	0.994767445448
2859680000.00	3728974273.92	972981.000000	978744.000000	0.994111841299
2859720000.00	3728974275.20	974621.000000	979512.000000	0.995006697212
2859760000.00	3728974276.48	975961.000000	981373.000000	0.994485277260
2859800000.00	3728974277.77	974852.000000	981848.000000	0.992874660844
2859840000.00	3728974279.05	977828.000000	985039.000000	0.992679477665
2859880000.00	3728974280.32	978389.000000	983102.000000	0.995205990833
2859920000.00	3728974281.60	976911.000000	981626.000000	0.995196744992
2859960000.00	3728974282.88	977061.000000	981777.000000	0.995196465185
2860000000.00	3728974284.14	981174.000000	982820.000000	0.998325227407
2860040000.00	3728974285.42	976736.000000	983339.000000	0.993285123442
2860080000.00	3728974286.72	975417.000000	981950.000000	0.993346911757
2860120000.00	3728974288.00	976261.000000	982321.000000	0.993830937138
2860160000.00	3728974289.28	975302.000000	983258.000000	0.991908532654
2860200000.00	3728974290.56	977245.000000	983831.000000	0.993305760847
2860240000.00	3728974291.85	977592.000000	982395.000000	0.995110927885
2860280000.00	3728974293.14	978511.000000	984062.000000	0.994359095260
2860320000.00	3728974294.42	976342.000000	984324.000000	0.991890881458
2860360000.00	3728974295.71	975103.000000	979353.000000	0.995660400285
2860400000.00	3728974296.98	975059.000000	979678.000000	0.995285185541
2860440000.00	3728974298.26	969531.000000	974813.000000	0.994581524867
2860480000.00	3728974299.54	973504.000000	979105.000000	0.994279469516
2860520000.00	3728974300.82	977756.000000	982268.000000	0.995406548926
2860560000.00	3728974302.10	976618.000000	981276.000000	0.995253119408
2860600000.00	3728974303.37	980294.000000	987723.000000	0.992478660515
2860640000.00	3728974304.64	979223.000000	985801.000000	0.993327253675
2860680000.00	3728974305.93	980604.000000	986412.000000	0.994111993771
2860720000.00	3728974307.21	979599.000000	986054.000000	0.993453705375
2860760000.00	3728974308.48	978352.000000	985584.000000	0.992662218543
2860800000.00	3728974309.76	975266.000000	982815.000000	0.992319002050
2860840000.00	3728974311.04	976632.000000	983720.000000	0.992794697678
2860880000.00	3728974312.31	976632.000000	983900.000000	0.992613070434
2860920000.00	3728974313.60	976462.000000	985165.000000	0.991165946821
2860960000.00	3728974314.88	981069.000000	983083.000000	0.997951342867
2861000000.00	3728974316.15	978897.000000	985678.000000	0.993120471391
2861040000.00	3728974317.42	979462.000000	985998.000000	0.993371183309
2861080000.00	3728974318.71	977920.000000	985698.000000	0.992109144992
2861120000.00	3728974319.98	978401.000000	985728.000000	0.992566915011
2861160000.00	3728974321.26	978235.000000	984231.000000	0.993907934215
2861200000.00	3728974322.53	979290.000000	986378.000000	0.992814113859
2861240000.00	3728974323.80	977911.000000	984068.000000	0.993743318551
2861280000.00	3728974325.07	980972.000000	988328.000000	0.992557126784
2861320000.00	3728974326.35	979099.000000	986875.000000	0.992120582647
2861360000.00	3728974327.62	977864.000000	985787.000000	0.991962766805
2861400000.00	3728974328.89	982916.000000	990822.000000	0.992020766596
2861440000.00	3728974330.17	977471.000000	986520.000000	0.990827352715
2861480000.00	3728974331.44	979689.000000	988486.000000	0.991100531520
2861520000.00	3728974332.73	978851.000000	985039.000000	0.993718015226
2861560000.00	3728974334.00	978790.000000	984547.000000	0.994152640758
2861600000.00	3728974335.28	976083.000000	985996.000000	0.989946206678
2861640000.00	3728974336.57	974832.000000	983378.000000	0.991309547295
2861680000.00	3728974337.84	975469.000000	983131.000000	0.992206531988
2861720000.00	3728974339.11	974616.000000	981021.000000	0.993471087775
2861760000.00	3728974340.39	977005.000000	982928.000000	0.993974126284
2861800000.00	3728974341.68	978273.000000	984361.000000	0.993815277119
2861840000.00	3728974342.96	977582.000000	985597.000000	0.991867872974
2861880000.00	3728974344.24	978161.000000	985731.000000	0.992320420074
2861920000.00	3728974345.52	974599.000000	984997.000000	0.989443622671
2861960000.00	3728974346.80	978064.000000	985787.000000	0.992165650389
2862000000.00	3728974348.08	976298.000000	984273.000000	0.991897573133
2862040000.00	3728974349.38	976714.000000	985317.000000	0.991268799787
2862080000.00	3728974350.65	976338.000000	983266.000000	0.992954093806
2862120000.00	3728974351.92	976950.000000	986643.000000	0.990175777865
2862160000.00	3728974353.18	974455.000000	986821.000000	0.987468852001
2862200000.00	3728974354.46	977275.000000	986472.000000	0.990676876789
2862240000.00	3728974355.74	982082.000000	987537.000000	0.994476156336
2862280000.00	3728974357.02	979675.000000	988468.000000	0.991104416127
2862320000.00	3728974358.30	975715.000000	987834.000000	0.987731744402
2862360000.00	3728974359.58	975834.000000	985604.000000	0.990087296724
2862400000.00	3728974360.85	977629.000000	987146.000000	0.990359075557
2862440000.00	3728974362.13	975356.000000	984334.000000	0.990879112171
2862480000.00	3728974363.41	974709.000000	984606.000000	0.989948263569
2862520000.00	3728974364.69	975421.000000	984971.000000	0.990304283070
2862560000.00	3728974365.96	979206.000000	990260.000000	0.988837275059
2862600000.00	3728974367.25	978797.000000	988823.000000	0.989860672739
2862640000.00	3728974368.52	977712.000000	987766.000000	0.989821475937
2862680000.00	3728974369.81	974852.000000	985221.000000	0.989475457791
2862720000.00	3728974371.10	974821.000000	985135.000000	0.989530368934
2862760000.00	3728974372.39	976891.000000	988015.000000	0.988741061624
2862800000.00	3728974373.67	980915.000000	992068.000000	0.988757827084
2862840000.00	3728974374.95	980080.000000	989186.000000	0.990794451195
2862880000.00	3728974376.22	978839.000000	990327.000000	0.988399791180
2862920000.00	3728974377.52	983469.000000	994690.000000	0.988719098413
2862960000.00	3728974378.79	985817.000000	996211.000000	0.989566467345
2863000000.00	3728974380.06	979784.000000	989841.000000	0.989839782349
2863040000.00	3728974381.33	981694.000000	991654.000000	0.989956174230
2863080000.00	3728974382.61	983010.000000	995510.000000	0.987443621862
2863120000.00	3728974383.88	984646.000000	997423.000000	0.987189988601
2863160000.00	3728974385.16	981960.000000	993217.000000	0.988666122308
2863200000.00	3728974386.44	982372.000000	994130.000000	0.988172573004
2863240000.00	3728974387.72	980659.000000	991724.000000	0.988842661870
2863280000.00	3728974389.02	983146.000000	993532.000000	0.989546386025
2863320000.00	3728974390.29	981008.000000	992716.000000	0.988206093183
2863360000.00	3728974391.58	982949.000000	994798.000000	0.988089039182
2863400000.00	3728974392.86	983271.000000	994970.000000	0.988241856538
2863440000.00	3728974394.13	976608.000000	992793.000000	0.983697507940
2863480000.00	3728974395.41	975356.000000	987137.000000	0.988065486351
2863520000.00	3728974396.69	978103.000000	987235.000000	0.990749922764
2863560000.00	3728974397.97	982925.000000	995748.000000	0.987122243781
2863600000.00	3728974399.26	983928.000000	993557.000000	0.990308558039
2863640000.00	3728974400.55	981845.000000	994832.000000	0.986945534522
2863680000.00	3728974401.83	981712.000000	995314.000000	0.986333960941
2863720000.00	3728974403.10	981351.000000	992889.000000	0.988379365669
2863760000.00	3728974404.37	982379.000000	995576.000000	0.986744357036
2863800000.00	3728974405.65	980023.000000	993742.000000	0.986194605843
2863840000.00	3728974406.94	973985.000000	987648.000000	0.986166123963
2863880000.00	3728974408.22	975997.000000	991062.000000	0.984799134666
2863920000.00	3728974409.50	982419.000000	992673.000000	0.989670314394
2863960000.00	3728974410.79	983750.000000	998740.000000	0.984991088772
2864000000.00	3728974412.07	979946.000000	994581.000000	0.985285260828
2864040000.00	3728974413.36	981257.000000	995957.000000	0.985240326641
2864080000.00	3728974414.65	979322.000000	994824.000000	0.984417344173
2864120000.00	3728974415.92	982005.000000	994414.000000	0.987521293948
2864160000.00	3728974417.20	978884.000000	994888.000000	0.983913767178
2864200000.00	3728974418.48	977271.000000	993583.000000	0.983582649864
2864240000.00	3728974419.77	979668.000000	993474.000000	0.986103310202
2864280000.00	3728974421.04	978690.000000	994066.000000	0.984532214159
2864320000.00	3728974422.32	978322.000000	994255.000000	0.983974936007
2864360000.00	3728974423.60	977683.000000	992513.000000	0.985058130221
2864400000.00	3728974424.87	975509.000000	992698.000000	0.982684562677
2864440000.00	3728974426.16	976247.000000	992056.000000	0.984064407654
2864480000.00	3728974427.44	976328.000000	992829.000000	0.983379816665
2864520000.00	3728974428.71	975828.000000	990354.000000	0.985332517463
2864560000.00	3728974429.98	975238.000000	991781.000000	0.983319906310
2864600000.00	3728974431.27	974612.000000	991825.000000	0.982645123888
2864640000.00	3728974432.56	973319.000000	990230.000000	0.982922149400
2864680000.00	3728974433.85	973533.000000	989780.000000	0.983585241165
2864720000.00	3728974435.17	975815.000000	992025.000000	0.983659685996
2864760000.00	3728974436.44	974150.000000	994187.000000	0.979845843891
2864800000.00	3728974437.71	972659.000000	990078.000000	0.982406436665
2864840000.00	3728974438.99	970779.000000	990855.000000	0.979738710508
2864880000.00	3728974440.26	972632.000000	991888.000000	0.980586517833
2864920000.00	3728974441.54	975414.000000	992280.000000	0.983002781473
2864960000.00	3728974442.81	973084.000000	993415.000000	0.979534232924
2865000000.00	3728974444.09	974656.000000	995269.000000	0.979289016336
2865040000.00	3728974445.37	973581.000000	992399.000000	0.981037868841
2865080000.00	3728974446.64	973087.000000	993029.000000	0.979918008437
2865120000.00	3728974447.93	969975.000000	990765.000000	0.979016214743
2865160000.00	3728974449.21	971838.000000	990691.000000	0.980969848318
2865200000.00	3728974450.50	971587.000000	990437.000000	0.980967996955
2865240000.00	3728974451.78	970665.000000	993666.000000	0.976852382994
2865280000.00	3728974453.07	972660.000000	992183.000000	0.980323186348
2865320000.00	3728974454.40	971113.000000	991989.000000	0.978955411804
2865360000.00	3728974455.67	970324.000000	990595.000000	0.979536541170
2865400000.00	3728974456.96	968831.000000	990012.000000	0.978605309835
2865440000.00	3728974458.24	970196.000000	991397.000000	0.978615025061
2865480000.00	3728974459.51	969931.000000	988723.000000	0.980993665567
2865520000.00	3728974460.80	968018.000000	991040.000000	0.976769857927
2865560000.00	3728974462.08	970014.000000	990575.000000	0.979243368750
2865600000.00	3728974463.36	969281.000000	992358.000000	0.976745287487
2865640000.00	3728974464.64	969216.000000	991572.000000	0.977453982162
2865680000.00	3728974465.92	968845.000000	992734.000000	0.975936152081
2865720000.00	3728974467.19	968556.000000	991899.000000	0.976466353933
2865760000.00	3728974468.47	965736.000000	990861.000000	0.974643264797
2865800000.00	3728974469.75	965727.000000	991204.000000	0.974296915670
2865840000.00	3728974471.03	966012.000000	989128.000000	0.976629920496
2865880000.00	3728974472.33	967747.000000	988915.000000	0.978594722499
2865920000.00	3728974473.62	967623.000000	991746.000000	0.975676231616
2865960000.00	3728974474.90	967277.000000	991400.000000	0.975667742586
2866000000.00	3728974476.17	967108.000000	992720.000000	0.974200177291
2866040000.00	3728974477.45	968451.000000	992078.000000	0.976184332280
2866080000.00	3728974478.72	966717.000000	989645.000000	0.976832096358
2866120000.00	3728974480.00	966411.000000	992303.000000	0.973907163437
2866160000.00	3728974481.28	968924.000000	992820.000000	0.975931185915
2866200000.00	3728974482.56	968667.000000	992434.000000	0.976051807979
2866240000.00	3728974483.84	965380.000000	993224.000000	0.971966041900
2866280000.00	3728974485.13	962259.000000	988584.000000	0.973371003375
2866320000.00	3728974486.40	964630.000000	989526.000000	0.974840479179
2866360000.00	3728974487.69	967181.000000	990697.000000	0.976263176329
2866400000.00	3728974488.98	964636.000000	989334.000000	0.975035731108
2866440000.00	3728974490.26	966753.000000	991369.000000	0.975169689591
2866480000.00	3728974491.55	963939.000000	991048.000000	0.972646128139
2866520000.00	3728974492.83	964501.000000	989276.000000	0.974956432785
2866560000.00	3728974494.10	971618.000000	995014.000000	0.976486763000
2866600000.00	3728974495.38	973167.000000	998723.000000	0.974411323260
2866640000.00	3728974496.66	970377.000000	993775.000000	0.976455435083
2866680000.00	3728974497.95	967354.000000	991337.000000	0.975807419677
2866720000.00	3728974499.22	966563.000000	991908.000000	0.974448235119
2866760000.00	3728974500.51	965841.000000	991220.000000	0.974396198624
2866800000.00	3728974501.79	967637.000000	992288.000000	0.975157413977
2866840000.00	3728974503.07	967364.000000	994164.000000	0.973042677063
2866880000.00	3728974504.33	968010.000000	990464.000000	0.977329817136
2866920000.00	3728974505.60	968904.000000	992132.000000	0.976587792753
2866960000.00	3728974506.89	968297.000000	990915.000000	0.977174631527
2867000000.00	3728974508.18	969994.000000	992899.000000	0.976931188369
2867040000.00	3728974509.45	969564.000000	990343.000000	0.979018380500
2867080000.00	3728974510.73	970235.000000	993923.000000	0.976167167879
2867120000.00	3728974512.01	974901.000000	996123.000000	0.978695402074
2867160000.00	3728974513.29	973958.000000	994504.000000	0.979340455141
2867200000.00	3728974514.57	972785.000000	991287.000000	0.981335375123
2867240000.00	3728974515.84	971790.000000	993295.000000	0.978349835648
2867280000.00	3728974517.11	974954.000000	995746.000000	0.979119172962
2867320000.00	3728974518.39	976775.000000	999950.000000	0.976823841192
2867360000.00	3728974519.67	973079.000000	993185.000000	0.979756037395
2867400000.00	3728974520.95	971082.000000	992407.000000	0.978511840404
2867440000.00	3728974522.24	972570.000000	993528.000000	0.978905476242
2867480000.00	3728974523.51	973735.000000	992324.000000	0.981267207082
2867520000.00	3728974524.80	974399.000000	992114.000000	0.982144189075
2867560000.00	3728974526.08	972524.000000	992497.000000	0.979876009701
2867600000.00	3728974527.35	979695.000000	999434.000000	0.980249821399
2867640000.00	3728974528.63	974869.000000	993584.000000	0.981164149181
2867680000.00	3728974529.90	974511.000000	989606.000000	0.984746454650
2867720000.00	3728974531.19	979538.000000	994749.000000	0.984708705412
2867760000.00	3728974532.47	977375.000000	992619.000000	0.984642647380
2867800000.00	3728974533.75	974875.000000	991925.000000	0.982811200444
2867840000.00	3728974535.02	975811.000000	993579.000000	0.982117174377
2867880000.00	3728974536.30	979933.000000	996297.000000	0.983575178887
2867920000.00	3728974537.57	980554.000000	995336.000000	0.985148733694
2867960000.00	3728974538.86	982416.000000	999027.000000	0.983372821756
2868000000.00	3728974540.14	982161.000000	999618.000000	0.982536328878
2868040000.00	3728974541.43	982478.000000	997776.000000	0.984667901413
2868080000.00	3728974542.71	988360.000000	1003724.00000	0.984693003256
2868120000.00	3728974543.98	985665.000000	1002310.00000	0.983393361335
2868160000.00	3728974545.26	988792.000000	1005354.00000	0.983526200721
2868200000.00	3728974546.55	988702.000000	1004740.00000	0.984037661485
2868240000.00	3728974547.84	989684.000000	1003254.00000	0.986474013560
2868280000.00	3728974549.12	987525.000000	1003340.00000	0.984237646261
2868320000.00	3728974550.40	988386.000000	1002580.00000	0.985842526282
2868360000.00	3728974551.68	986906.000000	1001437.00000	0.985489851084
2868400000.00	3728974552.98	986332.000000	1000737.00000	0.985605608666
2868440000.00	3728974554.26	981113.000000	997205.000000	0.983862896797
2868480000.00	3728974555.54	982918.000000	994687.000000	0.988168137314
2868520000.00	3728974556.82	985740.000000	999916.000000	0.985822809116
2868560000.00	3728974558.10	987727.000000	1003449.00000	0.984332038798
2868600000.00	3728974559.38	984929.000000	998829.000000	0.986083704017
2868640000.00	3728974560.65	984307.000000	996040.000000	0.988220352596
2868680000.00	3728974561.96	985413.000000	1000530.00000	0.984891007766
2868720000.00	3728974563.24	988851.000000	1002796.00000	0.986093881507
2868760000.00	3728974564.53	991794.000000	1002532.00000	0.989289119948
2868800000.00	3728974565.80	990885.000000	1003001.00000	0.987920251326
2868840000.00	3728974567.10	989873.000000	1003204.00000	0.986711576110
2868880000.00	3728974568.43	992101.000000	1005891.00000	0.986290761126
2868920000.00	3728974569.72	989949.000000	1003343.00000	0.986650626954
2868960000.00	3728974571.00	993284.000000	1006127.00000	0.987235209869
2869000000.00	3728974572.29	991324.000000	1001924.00000	0.989420355237
2869040000.00	3728974573.58	990223.000000	1004858.00000	0.985435753111
2869080000.00	3728974574.85	991043.000000	1004553.00000	0.986551232240
2869120000.00	3728974576.13	992385.000000	1005075.00000	0.987374076561
2869160000.00	3728974577.41	991107.000000	1005794.00000	0.985397606269
2869200000.00	3728974578.71	991751.000000	1006353.00000	0.985490180881
2869240000.00	3728974579.99	992050.000000	1007041.00000	0.985113813638
2869280000.00	3728974581.25	991619.000000	1004790.00000	0.986891788334
2869320000.00	3728974582.53	989138.000000	1003428.00000	0.985758818769
2869360000.00	3728974583.82	991883.000000	1002985.00000	0.988931040843
2869400000.00	3728974585.10	990390.000000	1004541.00000	0.985912969207
2869440000.00	3728974586.37	988797.000000	1001883.00000	0.986938594626
2869480000.00	3728974587.65	988694.000000	1001255.00000	0.987454744296
2869520000.00	3728974588.93	989233.000000	1006569.00000	0.982777136987
2869560000.00	3728974590.22	989082.000000	1003486.00000	0.985646037912
2869600000.00	3728974591.51	989587.000000	1004536.00000	0.985118502473
2869640000.00	3728974592.79	987118.000000	1003715.00000	0.983464429644
2869680000.00	3728974594.07	987909.000000	1003881.00000	0.984089747689
2869720000.00	3728974595.34	989865.000000	1006033.00000	0.983928956605
2869760000.00	3728974596.61	988044.000000	1005081.00000	0.983049127384
2869800000.00	3728974597.88	987239.000000	1002636.00000	0.984643479787
2869840000.00	3728974599.16	986687.000000	1004307.00000	0.982455563886
2869880000.00	3728974600.43	989755.000000	1005379.00000	0.984459591855
2869920000.00	3728974601.71	988051.000000	1003851.00000	0.984260612382
2869960000.00	3728974602.99	988393.000000	1006236.00000	0.982267579375
2870000000.00	3728974604.26	987932.000000	1005336.00000	0.982688374832
2870040000.00	3728974605.53	985227.000000	1003537.00000	0.981754534212
2870080000.00	3728974606.80	986171.000000	1003134.00000	0.983089995953
2870120000.00	3728974608.07	987624.000000	1002793.00000	0.984873249015
2870160000.00	3728974609.36	983410.000000	1001934.00000	0.981511756263
2870200000.00	3728974610.65	984282.000000	1003138.00000	0.981202985033
2870240000.00	3728974611.94	986963.000000	1003467.00000	0.983553021674
2870280000.00	3728974613.21	986273.000000	1005373.00000	0.981002075846
2870320000.00	3728974614.50	983416.000000	1003953.00000	0.979543863109
2870360000.00	3728974615.77	983804.000000	1002193.00000	0.981651238833
2870400000.00	3728974617.05	983936.000000	1002991.00000	0.981001823546
2870440000.00	3728974618.32	983819.000000	1004284.00000	0.979622298075
2870480000.00	3728974619.61	982443.000000	1004348.00000	0.978189830616
2870520000.00	3728974620.88	981274.000000	1004096.00000	0.977271097584
2870560000.00	3728974622.17	984395.000000	1002895.00000	0.981553402899
2870600000.00	3728974623.44	982520.000000	1004084.00000	0.978523709172
2870640000.00	3728974624.72	982637.000000	1004298.00000	0.978431700551
2870680000.00	3728974626.00	985213.000000	1006160.00000	0.979181243540
2870720000.00	3728974627.27	981239.000000	1002478.00000	0.978813500147
2870760000.00	3728974628.54	981507.000000	1003491.00000	0.978092479155
2870800000.00	3728974629.81	982543.000000	1005223.00000	0.977437842150
2870840000.00	3728974631.10	980489.000000	1002683.00000	0.977865387166
2870880000.00	3728974632.38	980193.000000	1003043.00000	0.977219321604
2870920000.00	3728974633.68	980885.000000	1005612.00000	0.975410993504
2870960000.00	3728974634.96	977490.000000	1002047.00000	0.975493165490
2871000000.00	3728974636.25	980686.000000	1006008.00000	0.974829226010
2871040000.00	3728974637.53	977989.000000	1002204.00000	0.975838252492
2871080000.00	3728974638.81	979021.000000	1002612.00000	0.976470459161
2871120000.00	3728974640.09	976814.000000	1001735.00000	0.975122163047
2871160000.00	3728974641.37	978855.000000	1002376.00000	0.976534753426
2871200000.00	3728974642.64	976593.000000	1003582.00000	0.973107329546
2871240000.00	3728974643.92	978357.000000	1001279.00000	0.977107279789
2871280000.00	3728974645.20	976933.000000	1001248.00000	0.975715307296
2871320000.00	3728974646.48	973398.000000	1001756.00000	0.971691709358
2871360000.00	3728974647.75	976117.000000	1002678.00000	0.973509940380
2871400000.00	3728974649.03	976288.000000	1001031.00000	0.975282483759
2871440000.00	3728974650.32	976586.000000	1003552.00000	0.973129444214
2871480000.00	3728974651.60	980414.000000	1005359.00000	0.975187967681
2871520000.00	3728974652.89	979389.000000	1005050.00000	0.974467936919
2871560000.00	3728974654.16	974913.000000	1004032.00000	0.970997936321
2871600000.00	3728974655.44	976177.000000	1003649.00000	0.972627880863
2871640000.00	3728974656.72	973594.000000	1001360.00000	0.972271710474
2871680000.00	3728974658.00	976932.000000	1003850.00000	0.973185236838
2871720000.00	3728974659.29	978764.000000	1002026.00000	0.976785033522
2871760000.00	3728974660.57	975519.000000	1002317.00000	0.973263947434
2871800000.00	3728974661.85	976011.000000	1002490.00000	0.973586768945
2871840000.00	3728974663.13	977872.000000	1003078.00000	0.974871345997
2871880000.00	3728974664.40	977501.000000	1001526.00000	0.976011606289
2871920000.00	3728974665.68	976882.000000	1003648.00000	0.973331287463
2871960000.00	3728974666.97	977246.000000	1003365.00000	0.973968595676
2872000000.00	3728974668.24	978157.000000	1001401.00000	0.976788519284
2872040000.00	3728974669.51	979558.000000	1004947.00000	0.974735981101
2872080000.00	3728974670.78	978481.000000	1001929.00000	0.976597144109
2872120000.00	3728974672.06	981391.000000	1005350.00000	0.976168498533
2872160000.00	3728974673.34	986769.000000	1010643.00000	0.976377415170
2872200000.00	3728974674.62	985284.000000	1008315.00000	0.977158923551
2872240000.00	3728974675.91	981596.000000	1007528.00000	0.974261757490
2872280000.00	3728974677.20	981482.000000	1004966.00000	0.976632045263
2872320000.00	3728974678.46	987795.000000	1011481.00000	0.976582852273
2872360000.00	3728974679.73	986722.000000	1010657.00000	0.976317385621
2872400000.00	3728974681.02	986625.000000	1009229.00000	0.977602704639
2872440000.00	3728974682.30	988995.000000	1012722.00000	0.976571062937
2872480000.00	3728974683.59	989661.000000	1011713.00000	0.978203304692
2872520000.00	3728974684.86	990814.000000	1013631.00000	0.977489836045
2872560000.00	3728974686.13	985225.000000	1005865.00000	0.979480347760
2872600000.00	3728974687.43	986579.000000	1011214.00000	0.975638193300
2872640000.00	3728974688.71	989988.000000	1011594.00000	0.978641628954
2872680000.00	3728974689.98	992184.000000	1013991.00000	0.978493891958
2872720000.00	3728974691.26	990342.000000	1011101.00000	0.979468915568
2872760000.00	3728974692.54	992986.000000	1014794.00000	0.978509924182
2872800000.00	3728974693.81	992469.000000	1011566.00000	0.981121350461
2872840000.00	3728974695.07	993442.000000	1014851.00000	0.978904292354
2872880000.00	3728974696.35	993665.000000	1013948.00000	0.979996015575
2872920000.00	3728974697.63	995760.000000	1015451.00000	0.980608616270
2872960000.00	3728974698.91	993453.000000	1013674.00000	0.980051772069
2873000000.00	3728974700.20	993442.000000	1013059.00000	0.980635876094
2873040000.00	3728974701.50	992749.000000	1012908.00000	0.980097896354
2873080000.00	3728974702.77	995617.000000	1013694.00000	0.982167202331
2873120000.00	3728974704.05	995785.000000	1013412.00000	0.982606284512
2873160000.00	3728974705.33	994887.000000	1013137.00000	0.981986641491
2873200000.00	3728974706.62	995966.000000	1014525.00000	0.981706710037
2873240000.00	3728974707.91	993303.000000	1011398.00000	0.982108922501
2873280000.00	3728974709.20	997421.000000	1013875.00000	0.983771174948
2873320000.00	3728974710.49	997703.000000	1014717.00000	0.983232763421
2873360000.00	3728974711.77	998582.000000	1016155.00000	0.982706378456
2873400000.00	3728974713.04	996054.000000	1016959.00000	0.979443615721
2873440000.00	3728974714.32	999337.000000	1016040.00000	0.983560686587
2873480000.00	3728974715.60	999077.000000	1018099.00000	0.981316158841
2873520000.00	3728974716.89	1000467.00000	1017598.00000	0.983165257793
2873560000.00	3728974718.17	1001504.00000	1016291.00000	0.985450033504
2873600000.00	3728974719.45	1001175.00000	1016552.00000	0.984873375882
2873640000.00	3728974720.73	997808.000000	1015290.00000	0.982781274316
2873680000.00	3728974722.01	1001643.00000	1018487.00000	0.983461742762
2873720000.00	3728974723.30	1000234.00000	1017290.00000	0.983233886109
2873760000.00	3728974724.59	997785.000000	1013981.00000	0.984027314121
2873800000.00	3728974725.86	997491.000000	1014394.00000	0.983336849390
2873840000.00	3728974727.15	1001660.00000	1017498.00000	0.984434367439
2873880000.00	3728974728.42	1001448.00000	1018870.00000	0.982900664462
2873920000.00	3728974729.69	1004642.00000	1018548.00000	0.986347231549
2873960000.00	3728974730.97	1005918.00000	1020087.00000	0.986110008264
2874000000.00	3728974732.26	1002869.00000	1017452.00000	0.985667137123
2874040000.00	3728974733.54	1002760.00000	1016374.00000	0.986605324418
2874080000.00	3728974734.81	1001465.00000	1016765.00000	0.984952275108
2874120000.00	3728974736.10	1005017.00000	1017401.00000	0.987827808308
2874160000.00	3728974737.38	1004524.00000	1018467.00000	0.986309816617
2874200000.00	3728974738.67	1005260.00000	1019404.00000	0.986125226113
2874240000.00	3728974739.94	1002457.00000	1016239.00000	0.986438229590
2874280000.00	3728974741.22	1006465.00000	1018378.00000	0.988301986099
2874320000.00	3728974742.49	1003536.00000	1020914.00000	0.982977998147
2874360000.00	3728974743.76	1005030.00000	1019206.00000	0.986091133686
2874400000.00	3728974745.04	1006643.00000	1021151.00000	0.985792502774
2874440000.00	3728974746.32	1002563.00000	1017387.00000	0.985429340064
2874480000.00	3728974747.60	1002133.00000	1013241.00000	0.989037158978
2874520000.00	3728974748.88	1003978.00000	1016743.00000	0.987445204934
2874560000.00	3728974750.16	1007501.00000	1018462.00000	0.989237693699
2874600000.00	3728974751.43	1007175.00000	1018475.00000	0.988904980486
2874640000.00	3728974752.71	1003791.00000	1016488.00000	0.987508952393
2874680000.00	3728974754.01	1006323.00000	1018665.00000	0.987884142481
2874720000.00	3728974755.28	1004951.00000	1018105.00000	0.987079918083
2874760000.00	3728974756.57	1002730.00000	1012842.00000	0.990016211808
2874800000.00	3728974757.84	1006077.00000	1016332.00000	0.989909793257
2874840000.00	3728974759.12	1006808.00000	1018404.00000	0.988613556113
2874880000.00	3728974760.40	1004325.00000	1018403.00000	0.986176395788
2874920000.00	3728974761.68	1007394.00000	1018545.00000	0.989052030102
2874960000.00	3728974762.95	1008887.00000	1019506.00000	0.989584171157
2875000000.00	3728974764.23	1009203.00000	1019477.00000	0.989922283681
2875040000.00	3728974765.51	1005854.00000	1015836.00000	0.990173610701
2875080000.00	3728974766.79	1008168.00000	1021225.00000	0.987214374893
2875120000.00	3728974768.08	1004163.00000	1014434.00000	0.989875142198
2875160000.00	3728974769.37	1007071.00000	1017272.00000	0.989972200159
2875200000.00	3728974770.66	1008443.00000	1020605.00000	0.988083538685
2875240000.00	3728974771.93	1003772.00000	1014538.00000	0.989388273283
2875280000.00	3728974773.20	1006958.00000	1017835.00000	0.989313592085
2875320000.00	3728974774.47	1005659.00000	1016549.00000	0.989287284725
2875360000.00	3728974775.77	1008867.00000	1019876.00000	0.989205550479
2875400000.00	3728974777.05	1009526.00000	1018689.00000	0.991005105582
2875440000.00	3728974778.32	1008558.00000	1018859.00000	0.989889670700
2875480000.00	3728974779.62	1011150.00000	1019498.00000	0.991811656325
2875520000.00	3728974780.90	1008854.00000	1017413.00000	0.991587487087
2875560000.00	3728974782.17	1011073.00000	1021894.00000	0.989410839089
2875600000.00	3728974783.45	1007487.00000	1017075.00000	0.990572966595
2875640000.00	3728974784.73	1007709.00000	1014439.00000	0.993365791339
2875680000.00	3728974786.01	1011923.00000	1019861.00000	0.992216586378
2875720000.00	3728974787.28	1009322.00000	1021059.00000	0.988505071695
2875760000.00	3728974788.56	1011048.00000	1021044.00000	0.990210020332
2875800000.00	3728974789.82	1008737.00000	1016794.00000	0.992076074406
2875840000.00	3728974791.11	1011048.00000	1021199.00000	0.990059723913
2875880000.00	3728974792.39	1012618.00000	1022422.00000	0.990411004458
2875920000.00	3728974793.68	1012129.00000	1020165.00000	0.992122842873
2875960000.00	3728974794.96	1012414.00000	1019302.00000	0.993242434529
2876000000.00	3728974796.23	1012248.00000	1020286.00000	0.992121816824
2876040000.00	3728974797.50	1011406.00000	1020171.00000	0.991408303118
2876080000.00	3728974798.78	1011380.00000	1020126.00000	0.991426549269
2876120000.00	3728974800.07	1011435.00000	1021403.00000	0.990240874562
2876160000.00	3728974801.36	1012326.00000	1019010.00000	0.993440692437
2876200000.00	3728974802.63	1013474.00000	1019747.00000	0.993848474180
2876240000.00	3728974803.90	1010842.00000	1018641.00000	0.992343720702
2876280000.00	3728974805.18	1012531.00000	1017877.00000	0.994747891936
2876320000.00	3728974806.46	1012227.00000	1019638.00000	0.992731734204
2876360000.00	3728974807.76	1011975.00000	1020538.00000	0.991609327629
2876400000.00	3728974809.04	1013574.00000	1017219.00000	0.996416700828
2876440000.00	3728974810.31	1012625.00000	1020607.00000	0.992179163968
2876480000.00	3728974811.59	1011015.00000	1019674.00000	0.991508070226
2876520000.00	3728974812.87	1013755.00000	1019874.00000	0.994000239245
2876560000.00	3728974814.14	1014350.00000	1022425.00000	0.992102110179
2876600000.00	3728974815.43	1015786.00000	1021411.00000	0.994492912256
2876640000.00	3728974816.70	1015789.00000	1022800.00000	0.993145287446
2876680000.00	3728974817.97	1011606.00000	1020019.00000	0.991752114421
2876720000.00	3728974819.24	1013683.00000	1023402.00000	0.990503243105
2876760000.00	3728974820.52	1020022.00000	1026568.00000	0.993623413159
2876800000.00	3728974821.80	1021220.00000	1027891.00000	0.993510012248
2876840000.00	3728974823.07	1019188.00000	1028863.00000	0.990596415655
2876880000.00	3728974824.35	1022343.00000	1028957.00000	0.993572131780
2876920000.00	3728974825.62	1021888.00000	1027099.00000	0.994926487125
2876960000.00	3728974826.91	1020900.00000	1028684.00000	0.992433050383
2877000000.00	3728974828.20	1021102.00000	1029731.00000	0.991620141571
2877040000.00	3728974829.49	1018336.00000	1025309.00000	0.993199123386
2877080000.00	3728974830.77	1019624.00000	1027186.00000	0.992638139539
2877120000.00	3728974832.05	1021976.00000	1029271.00000	0.992912459401
2877160000.00	3728974833.34	1020511.00000	1028513.00000	0.992219835821
2877200000.00	3728974834.63	1019848.00000	1027749.00000	0.992312325286
2877240000.00	3728974835.90	1014752.00000	1023012.00000	0.991925803412
2877280000.00	3728974837.19	1015312.00000	1020734.00000	0.994688136184
2877320000.00	3728974838.46	1015858.00000	1021428.00000	0.994546850096
2877360000.00	3728974839.73	1020487.00000	1026563.00000	0.994081220539
2877400000.00	3728974841.00	1022528.00000	1027036.00000	0.995610669928
2877440000.00	3728974842.28	1020601.00000	1026927.00000	0.993839873720
2877480000.00	3728974843.56	1019644.00000	1026554.00000	0.993268741829
2877520000.00	3728974844.84	1020806.00000	1027497.00000	0.993488058846
2877560000.00	3728974846.12	1014743.00000	1020167.00000	0.994683223433
2877600000.00	3728974847.38	1020536.00000	1026837.00000	0.993863680409
2877640000.00	3728974848.66	1019751.00000	1024777.00000	0.995095518342
2877680000.00	3728974849.93	1017603.00000	1025144.00000	0.992643960263
2877720000.00	3728974851.21	1024904.00000	1030614.00000	0.994459613396
2877760000.00	3728974852.50	1021894.00000	1028232.00000	0.993836021443
2877800000.00	3728974853.77	1021511.00000	1029042.00000	0.992681542639
2877840000.00	3728974855.06	1019067.00000	1026845.00000	0.992425341702
2877880000.00	3728974856.34	1018098.00000	1024503.00000	0.993748188146
2877920000.00	3728974857.62	1020808.00000	1026297.00000	0.994651645674
2877960000.00	3728974858.90	1019727.00000	1023245.00000	0.996561918211
2878000000.00	3728974860.19	1016145.00000	1022847.00000	0.993447700389
2878040000.00	3728974861.48	1016440.00000	1021481.00000	0.995065008551
2878080000.00	3728974862.76	1016616.00000	1020665.00000	0.996032978499
2878120000.00	3728974864.04	1018587.00000	1021471.00000	0.997176620775
2878160000.00	3728974865.31	1018684.00000	1025279.00000	0.993567604525
2878200000.00	3728974866.60	1020504.00000	1026664.00000	0.993999984416
2878240000.00	3728974867.88	1018316.00000	1025105.00000	0.993377263792
2878280000.00	3728974869.16	1017671.00000	1021377.00000	0.996371565054
2878320000.00	3728974870.44	1016386.00000	1020080.00000	0.996378715395
2878360000.00	3728974871.72	1022423.00000	1028075.00000	0.994502346619
2878400000.00	3728974872.99	1024515.00000	1029625.00000	0.995037028044
2878440000.00	3728974874.27	1022806.00000	1028141.00000	0.994811023002
2878480000.00	3728974875.56	1026634.00000	1028563.00000	0.998124567965
2878520000.00	3728974876.85	1023288.00000	1029043.00000	0.994407425151
2878560000.00	3728974878.13	1023151.00000	1029902.00000	0.993445007389
2878600000.00	3728974879.41	1024417.00000	1029394.00000	0.995165116564
2878640000.00	3728974880.68	1023935.00000	1027792.00000	0.996247295173
2878680000.00	3728974881.95	1024320.00000	1029472.00000	0.994995492835
2878720000.00	3728974883.25	1025848.00000	1030140.00000	0.995833576019
2878760000.00	3728974884.52	1028058.00000	1031875.00000	0.996300908540
2878800000.00	3728974885.79	1024874.00000	1028940.00000	0.996048360449
2878840000.00	3728974887.07	1024419.00000	1029073.00000	0.995477483133
2878880000.00	3728974888.35	1025316.00000	1029383.00000	0.996049089600
2878920000.00	3728974889.64	1022009.00000	1028100.00000	0.994075479039
2878960000.00	3728974890.92	1024992.00000	1030242.00000	0.994904109908
2879000000.00	3728974892.19	1023085.00000	1028738.00000	0.994504917676
2879040000.00	3728974893.47	1025660.00000	1031958.00000	0.993897038445
2879080000.00	3728974894.75	1024166.00000	1030207.00000	0.994136129923
2879120000.00	3728974896.04	1024111.00000	1028946.00000	0.995301016769
2879160000.00	3728974897.32	1021989.00000	1026529.00000	0.995577329038
2879200000.00	3728974898.60	1020411.00000	1026364.00000	0.994199913481
2879240000.00	3728974899.88	1023539.00000	1029661.00000	0.994054353812
2879280000.00	3728974901.16	1030063.00000	1031335.00000	0.998766647113
2879320000.00	3728974902.44	1025232.00000	1030385.00000	0.994998956701
2879360000.00	3728974903.72	1024635.00000	1029017.00000	0.995741566952
2879400000.00	3728974904.99	1024584.00000	1027962.00000	0.996713886311
2879440000.00	3728974906.27	1023505.00000	1027290.00000	0.996315548677
2879480000.00	3728974907.55	1023709.00000	1028836.00000	0.995016698483
2879520000.00	3728974908.83	1024809.00000	1028113.00000	0.996786345470
2879560000.00	3728974910.11	1029814.00000	1031861.00000	0.998016205671
2879600000.00	3728974911.38	1023767.00000	1029108.00000	0.994810068525
2879640000.00	3728974912.66	1028139.00000	1031484.00000	0.996757099480
2879680000.00	3728974913.94	1028746.00000	1031761.00000	0.997077811625
2879720000.00	3728974915.23	1029571.00000	1034993.00000	0.994761317226
2879760000.00	3728974916.53	1029252.00000	1031220.00000	0.998091580846
2879800000.00	3728974917.79	1030237.00000	1036158.00000	0.994285620533
2879840000.00	3728974919.07	1028138.00000	1033846.00000	0.994478868226
2879880000.00	3728974920.35	1028669.00000	1033622.00000	0.995208112830
2879920000.00	3728974921.64	1027237.00000	1029283.00000	0.998012208499
2879960000.00	3728974922.92	1024834.00000	1030288.00000	0.994706334539
2880000000.00	3728974924.21	1026892.00000	1030092.00000	0.996893481359
2880040000.00	3728974925.48	1029795.00000	1032820.00000	0.997071125656
2880080000.00	3728974926.77	1029442.00000	1033592.00000	0.995984876044
2880120000.00	3728974928.05	1027620.00000	1031062.00000	0.996661694447
2880160000.00	3728974929.33	1030849.00000	1031785.00000	0.999092834263
2880200000.00	3728974930.61	1029328.00000	1031293.00000	0.998094624903
2880240000.00	3728974931.89	1028452.00000	1031500.00000	0.997045079981
2880280000.00	3728974933.17	1029999.00000	1034354.00000	0.995789642618
2880320000.00	3728974934.45	1027618.00000	1031540.00000	0.996197917676
2880360000.00	3728974935.72	1030285.00000	1035178.00000	0.995273276673
2880400000.00	3728974937.00	1030074.00000	1031752.00000	0.998373640177
2880440000.00	3728974938.28	1026385.00000	1030784.00000	0.995732374581
2880480000.00	3728974939.57	1029034.00000	1032295.00000	0.996841019282
2880520000.00	3728974940.86	1027454.00000	1031376.00000	0.996197313104
2880560000.00	3728974942.14	1027599.00000	1028274.00000	0.999343560179
2880600000.00	3728974943.42	1027046.00000	1030854.00000	0.996305975434
2880640000.00	3728974944.70	1023045.00000	1025267.00000	0.997832759662
2880680000.00	3728974945.98	1028529.00000	1032365.00000	0.996284259927
2880720000.00	3728974947.26	1030400.00000	1032240.00000	0.998217468806
2880760000.00	3728974948.53	1031665.00000	1034167.00000	0.997580661537
2880800000.00	3728974949.82	1031906.00000	1035004.00000	0.997006774853
2880840000.00	3728974951.10	1032952.00000	1034345.00000	0.998653253992
2880880000.00	3728974952.39	1030277.00000	1033084.00000	0.997282892775
2880920000.00	3728974953.67	1028994.00000	1033405.00000	0.995731586358
2880960000.00	3728974954.95	1032331.00000	1034420.00000	0.997980510818
2881000000.00	3728974956.24	1030400.00000	1033409.00000	0.997088277729
2881040000.00	3728974957.52	1029865.00000	1031444.00000	0.998469136473
2881080000.00	3728974958.79	1027981.00000	1031302.00000	0.996779798740
2881120000.00	3728974960.07	1032420.00000	1035484.00000	0.997040997253
2881160000.00	3728974961.36	1029606.00000	1031982.00000	0.997697634261
2881200000.00	3728974962.64	1030277.00000	1033096.00000	0.997271308765
2881240000.00	3728974963.92	1030135.00000	1032090.00000	0.998105785348
2881280000.00	3728974965.22	1030558.00000	1033396.00000	0.997253714936
2881320000.00	3728974966.49	1032022.00000	1034037.00000	0.998051326983
2881360000.00	3728974967.77	1032635.00000	1033532.00000	0.999132102344
2881400000.00	3728974969.06	1030610.00000	1032066.00000	0.998589237510
2881440000.00	3728974970.35	1031900.00000	1033787.00000	0.998174672345
2881480000.00	3728974971.63	1029162.00000	1034150.00000	0.995176715177
2881520000.00	3728974972.92	1030731.00000	1034158.00000	0.996686193019
2881560000.00	3728974974.20	1031767.00000	1034728.00000	0.997138378395
2881600000.00	3728974975.47	1027655.00000	1029956.00000	0.997765923981
2881640000.00	3728974976.75	1030146.00000	1034055.00000	0.996219736861
2881680000.00	3728974978.02	1030780.00000	1036048.00000	0.994915293500
2881720000.00	3728974979.29	1031547.00000	1031649.00000	0.999901129163
2881760000.00	3728974980.59	1033060.00000	1035256.00000	0.997878785537
2881800000.00	3728974981.87	1030420.00000	1033704.00000	0.996823075078
2881840000.00	3728974983.15	1028666.00000	1031841.00000	0.996922975536
2881880000.00	3728974984.43	1027791.00000	1031094.00000	0.996796606323
2881920000.00	3728974985.71	1031287.00000	1032343.00000	0.998977084167
2881960000.00	3728974986.99	1026389.00000	1030146.00000	0.996352944146
2882000000.00	3728974988.27	1030743.00000	1032896.00000	0.997915569428
2882040000.00	3728974989.54	1027816.00000	1031354.00000	0.996569558076
2882080000.00	3728974990.81	1031107.00000	1031032.00000	1.00007274265
2882120000.00	3728974992.10	1035052.00000	1034870.00000	1.00017586750
2882160000.00	3728974993.37	1030486.00000	1032742.00000	0.997815524110
2882200000.00	3728974994.65	1028643.00000	1032728.00000	0.996044457011
2882240000.00	3728974995.94	1032021.00000	1035398.00000	0.996738452267
2882280000.00	3728974997.21	1030946.00000	1034715.00000	0.996357451086
2882320000.00	3728974998.49	1030393.00000	1033917.00000	0.996591602614
2882360000.00	3728974999.78	1030514.00000	1031823.00000	0.998731371563
2882400000.00	3728975001.09	1034182.00000	1032837.00000	1.00130223840
2882440000.00	3728975002.37	1032058.00000	1034731.00000	0.997416719901
2882480000.00	3728975003.65	1030839.00000	1033607.00000	0.997321999561
2882520000.00	3728975004.92	1029162.00000	1030922.00000	0.998292790337
2882560000.00	3728975006.19	1034532.00000	1033247.00000	1.00124365229
2882600000.00	3728975007.48	1032967.00000	1034748.00000	0.998278807980
2882640000.00	3728975008.77	1033379.00000	1033901.00000	0.999495116070
2882680000.00	3728975010.04	1032364.00000	1036252.00000	0.996248016892
2882720000.00	3728975011.32	1033341.00000	1033181.00000	1.00015486154
2882760000.00	3728975012.60	1033817.00000	1033968.00000	0.999853960664
2882800000.00	3728975013.88	1030803.00000	1034034.00000	0.996875344524
2882840000.00	3728975015.17	1033086.00000	1033582.00000	0.999520115482
2882880000.00	3728975016.44	1031974.00000	1032856.00000	0.999146057146
2882920000.00	3728975017.72	1032855.00000	1035355.00000	0.997585369269
2882960000.00	3728975019.00	1033064.00000	1035849.00000	0.997311384188
2883000000.00	3728975020.28	1035383.00000	1035522.00000	0.999865768183
2883040000.00	3728975021.56	1033884.00000	1034599.00000	0.999308910989
2883080000.00	3728975022.84	1033483.00000	1032553.00000	1.00090068016
2883120000.00	3728975024.12	1034805.00000	1038106.00000	0.996820170580
2883160000.00	3728975025.40	1032478.00000	1034450.00000	0.998093672966
2883200000.00	3728975026.70	1033406.00000	1035468.00000	0.998008629914
2883240000.00	3728975027.98	1034742.00000	1035328.00000	0.999433995797
2883280000.00	3728975029.26	1033669.00000	1036835.00000	0.996946476537
2883320000.00	3728975030.55	1033776.00000	1035066.00000	0.998753702662
2883360000.00	3728975031.84	1034532.00000	1034920.00000	0.999625091795
2883400000.00	3728975033.12	1032881.00000	1033783.00000	0.999127476463
2883440000.00	3728975034.40	1035933.00000	1035135.00000	1.00077091394
2883480000.00	3728975035.68	1034298.00000	1037269.00000	0.997135747815
2883520000.00	3728975036.97	1032190.00000	1036229.00000	0.996102212928
2883560000.00	3728975038.24	1034748.00000	1036765.00000	0.998054525375
2883600000.00	3728975039.52	1040776.00000	1042023.00000	0.998803289371
2883640000.00	3728975040.80	1041236.00000	1042723.00000	0.998573926153
2883680000.00	3728975042.09	1035969.00000	1035619.00000	1.00033796213
2883720000.00	3728975043.37	1033457.00000	1033515.00000	0.999943880834
2883760000.00	3728975044.65	1033196.00000	1032594.00000	1.00058299777
2883800000.00	3728975045.93	1034578.00000	1036124.00000	0.998507900599
2883840000.00	3728975047.20	1034892.00000	1036166.00000	0.998770467280
2883880000.00	3728975048.47	1032675.00000	1033766.00000	0.998944635440
2883920000.00	3728975049.75	1033829.00000	1035355.00000	0.998526109402
2883960000.00	3728975051.02	1035267.00000	1036869.00000	0.998454963935
2884000000.00	3728975052.30	1032460.00000	1034552.00000	0.997977868681
2884040000.00	3728975053.57	1033797.00000	1036881.00000	0.997025695331
2884080000.00	3728975054.85	1033930.00000	1034333.00000	0.999610376929
2884120000.00	3728975056.14	1033737.00000	1032509.00000	1.00118933588
2884160000.00	3728975057.42	1033126.00000	1035124.00000	0.998069796469
2884200000.00	3728975058.69	1033889.00000	1034890.00000	0.999032747442
2884240000.00	3728975059.97	1032226.00000	1036593.00000	0.995787160438
2884280000.00	3728975061.25	1033176.00000	1034433.00000	0.998784841551
2884320000.00	3728975062.53	1035021.00000	1037540.00000	0.997572141797
2884360000.00	3728975063.81	1033865.00000	1034504.00000	0.999382312683
2884400000.00	3728975065.08	1035951.00000	1035793.00000	1.00015254013
2884440000.00	3728975066.35	1035968.00000	1039314.00000	0.996780568721
2884480000.00	3728975067.64	1033993.00000	1036130.00000	0.997937517493
2884520000.00	3728975068.92	1032842.00000	1033190.00000	0.999663179086
2884560000.00	3728975070.22	1032740.00000	1035460.00000	0.997373148166
2884600000.00	3728975071.50	1032505.00000	1035007.00000	0.997582625045
2884640000.00	3728975072.77	1034746.00000	1038454.00000	0.996429307413
2884680000.00	3728975074.04	1040452.00000	1042844.00000	0.997706272463
2884720000.00	3728975075.32	1033769.00000	1034377.00000	0.999412206575
2884760000.00	3728975076.60	1031153.00000	1032853.00000	0.998354073619
2884800000.00	3728975077.87	1034787.00000	1037044.00000	0.997823621756
2884840000.00	3728975079.15	1033007.00000	1037546.00000	0.995625254206
2884880000.00	3728975080.44	1036130.00000	1037348.00000	0.998825852077
2884920000.00	3728975081.72	1034729.00000	1035707.00000	0.999055717495
2884960000.00	3728975083.01	1036465.00000	1035013.00000	1.00140288093
2885000000.00	3728975084.27	1037624.00000	1038144.00000	0.999499106097
2885040000.00	3728975085.56	1038327.00000	1038496.00000	0.999837264660
2885080000.00	3728975086.84	1037628.00000	1040782.00000	0.996969586330
2885120000.00	3728975088.12	1043108.00000	1041937.00000	1.00112386833
2885160000.00	3728975089.40	1037552.00000	1037937.00000	0.999629071899
2885200000.00	3728975090.69	1034061.00000	1037080.00000	0.997088942030
2885240000.00	3728975091.97	1035810.00000	1037620.00000	0.998255623446
2885280000.00	3728975093.24	1034291.00000	1038044.00000	0.996384546320
2885320000.00	3728975094.52	1034075.00000	1037540.00000	0.996660369721
2885360000.00	3728975095.82	1035350.00000	1037750.00000	0.997687304264
2885400000.00	3728975097.10	1036944.00000	1039118.00000	0.997907841073
2885440000.00	3728975098.37	1034389.00000	1037806.00000	0.996707477120
2885480000.00	3728975099.64	1034456.00000	1036160.00000	0.998355466337
2885520000.00	3728975100.92	1033867.00000	1034627.00000	0.999265435756
2885560000.00	3728975102.20	1033061.00000	1033179.00000	0.999885789394
2885600000.00	3728975103.49	1035564.00000	1036158.00000	0.999426728356
2885640000.00	3728975104.75	1033655.00000	1035624.00000	0.998098730813
2885680000.00	3728975106.04	1034917.00000	1037117.00000	0.997878734993
2885720000.00	3728975107.30	1032171.00000	1032349.00000	0.999827577689
2885760000.00	3728975108.58	1033039.00000	1036175.00000	0.996973484209
2885800000.00	3728975109.85	1034841.00000	1036287.00000	0.998604633658
2885840000.00	3728975111.14	1037557.00000	1038505.00000	0.999087149316
2885880000.00	3728975112.42	1036097.00000	1037933.00000	0.998231099695
2885920000.00	3728975113.70	1039345.00000	1039559.00000	0.999794143478
2885960000.00	3728975114.98	1037269.00000	1038571.00000	0.998746354366
2886000000.00	3728975116.25	1030851.00000	1032293.00000	0.998603109776
2886040000.00	3728975117.53	1031965.00000	1033651.00000	0.998368888532
2886080000.00	3728975118.81	1033481.00000	1033881.00000	0.999613108278
2886120000.00	3728975120.09	1031828.00000	1033369.00000	0.998508761149
2886160000.00	3728975121.38	1033072.00000	1035017.00000	0.998120803813
2886200000.00	3728975122.66	1036075.00000	1037549.00000	0.998579344204
2886240000.00	3728975123.93	1035342.00000	1035866.00000	0.999494143065
2886280000.00	3728975125.22	1036003.00000	1038549.00000	0.997548502767
2886320000.00	3728975126.50	1039754.00000	1039448.00000	1.00029438702
2886360000.00	3728975127.78	1036433.00000	1038799.00000	0.997722369775
2886400000.00	3728975129.05	1036992.00000	1038610.00000	0.998442148641
2886440000.00	3728975130.33	1040464.00000	1040163.00000	1.00028937772
2886480000.00	3728975131.61	1035078.00000	1038135.00000	0.997055296276
2886520000.00	3728975132.90	1032183.00000	1033975.00000	0.998266882662
2886560000.00	3728975134.17	1034397.00000	1034369.00000	1.00002706964
2886600000.00	3728975135.46	1033341.00000	1036159.00000	0.997280340179
2886640000.00	3728975136.75	1035672.00000	1035569.00000	1.00009946223
2886680000.00	3728975138.03	1041272.00000	1042786.00000	0.998548120132
2886720000.00	3728975139.30	1037260.00000	1040129.00000	0.997241688291
2886760000.00	3728975140.58	1040630.00000	1041390.00000	0.999270206167
2886800000.00	3728975141.87	1035977.00000	1036764.00000	0.999240907285
2886840000.00	3728975143.14	1040035.00000	1041991.00000	0.998122824477
2886880000.00	3728975144.43	1040555.00000	1041765.00000	0.998838509645
2886920000.00	3728975145.71	1038253.00000	1041466.00000	0.996914925691
2886960000.00	3728975146.98	1039445.00000	1041652.00000	0.997881250168
2887000000.00	3728975148.25	1040857.00000	1043987.00000	0.997001878376
2887040000.00	3728975149.54	1039457.00000	1039709.00000	0.999757624489
2887080000.00	3728975150.96	1038899.00000	1040794.00000	0.998179274669
2887120000.00	3728975152.24	1040827.00000	1041220.00000	0.999622558153
2887160000.00	3728975153.51	1037638.00000	1038497.00000	0.999172843061
2887200000.00	3728975154.79	1039972.00000	1040607.00000	0.999389779235
2887240000.00	3728975156.08	1041142.00000	1042228.00000	0.998958001512
2887280000.00	3728975157.36	1040520.00000	1042919.00000	0.997699725482
2887320000.00	3728975158.63	1040680.00000	1042690.00000	0.998072293779
2887360000.00	3728975159.89	1040806.00000	1043295.00000	0.997614289343
2887400000.00	3728975161.18	1039410.00000	1042477.00000	0.997057968665
2887440000.00	3728975162.47	1040734.00000	1041001.00000	0.999743516097
2887480000.00	3728975163.75	1036508.00000	1039764.00000	0.996868520164
2887520000.00	3728975165.03	1036833.00000	1042387.00000	0.994671844526
2887560000.00	3728975166.30	1038795.00000	1041483.00000	0.997419064930
2887600000.00	3728975167.59	1039514.00000	1041404.00000	0.998185142365
2887640000.00	3728975168.89	1042172.00000	1041408.00000	1.00073362217
2887680000.00	3728975170.16	1038779.00000	1041841.00000	0.997060971876
2887720000.00	3728975171.43	1041057.00000	1040810.00000	1.00023731517
2887760000.00	3728975172.71	1039425.00000	1040437.00000	0.999027331785
2887800000.00	3728975174.00	1039098.00000	1041077.00000	0.998099083929
2887840000.00	3728975175.28	1041949.00000	1040550.00000	1.00134448128
2887880000.00	3728975176.56	1041194.00000	1040478.00000	1.00068814526
2887920000.00	3728975177.83	1039828.00000	1041516.00000	0.998379285580
2887960000.00	3728975179.11	1040633.00000	1043861.00000	0.996907634254
2888000000.00	3728975180.39	1040502.00000	1042824.00000	0.997773353893
2888040000.00	3728975181.68	1041833.00000	1043084.00000	0.998800671854
2888080000.00	3728975182.95	1043959.00000	1044888.00000	0.999110909495
2888120000.00	3728975184.23	1040427.00000	1041851.00000	0.998633201869
2888160000.00	3728975185.51	1042628.00000	1043316.00000	0.999340564124
2888200000.00	3728975186.80	1039529.00000	1039413.00000	1.00011160145
2888240000.00	3728975188.08	1039500.00000	1041432.00000	0.998144862075
2888280000.00	3728975189.37	1041272.00000	1038635.00000	1.00253890924
2888320000.00	3728975190.64	1039046.00000	1041257.00000	0.997876604911
2888360000.00	3728975191.92	1039615.00000	1039811.00000	0.999811504206
2888400000.00	3728975193.20	1039080.00000	1039046.00000	1.00003272232
2888440000.00	3728975194.47	1039463.00000	1040963.00000	0.998559026594
2888480000.00	3728975195.75	1041254.00000	1043850.00000	0.997513052642
2888520000.00	3728975197.03	1043151.00000	1044633.00000	0.998581319947
2888560000.00	3728975198.31	1042175.00000	1045437.00000	0.996879773721
2888600000.00	3728975199.59	1040796.00000	1042283.00000	0.998573324136
2888640000.00	3728975200.87	1042662.00000	1043421.00000	0.999272585083
2888680000.00	3728975202.15	1041148.00000	1043107.00000	0.998121956808
2888720000.00	3728975203.43	1039781.00000	1040972.00000	0.998855877007
2888760000.00	3728975204.69	1038428.00000	1041187.00000	0.997350139792
2888800000.00	3728975205.97	1039806.00000	1039602.00000	1.00019622894
2888840000.00	3728975207.26	1041067.00000	1041200.00000	0.999872262774
2888880000.00	3728975208.54	1042194.00000	1042287.00000	0.999910773136
2888920000.00	3728975209.82	1040735.00000	1042755.00000	0.998062823962
2888960000.00	3728975211.09	1044563.00000	1045099.00000	0.999487129927
2889000000.00	3728975212.38	1041678.00000	1042618.00000	0.999098423392
2889040000.00	3728975213.68	1044906.00000	1044663.00000	1.00023261090
2889080000.00	3728975214.97	1039190.00000	1042929.00000	0.996414904562
2889120000.00	3728975216.26	1039850.00000	1042296.00000	0.997653257808
2889160000.00	3728975217.53	1039916.00000	1042074.00000	0.997929129793
2889200000.00	3728975218.81	1042900.00000	1042875.00000	1.00002397219
2889240000.00	3728975220.09	1042236.00000	1042498.00000	0.999748680573
2889280000.00	3728975221.35	1041513.00000	1043645.00000	0.997957159762
2889320000.00	3728975222.64	1043093.00000	1043804.00000	0.999318837636
2889360000.00	3728975223.92	1042121.00000	1044146.00000	0.998060616044
2889400000.00	3728975225.20	1044561.00000	1044168.00000	1.00037637622
2889440000.00	3728975226.48	1041419.00000	1044174.00000	0.997361550853
2889480000.00	3728975227.76	1040955.00000	1043151.00000	0.997894839769
2889520000.00	3728975229.04	1044523.00000	1044645.00000	0.999883213915
2889560000.00	3728975230.33	1042027.00000	1043554.00000	0.998536731209
2889600000.00	3728975231.59	1040650.00000	1042151.00000	0.998559709677
2889640000.00	3728975232.87	1044258.00000	1043957.00000	1.00028832605
2889680000.00	3728975234.14	1041951.00000	1043197.00000	0.998805594725
2889720000.00	3728975235.43	1042445.00000	1043464.00000	0.999023444987
2889760000.00	3728975236.70	1042689.00000	1044097.00000	0.998651466291
2889800000.00	3728975237.99	1042799.00000	1044270.00000	0.998591360472
2889840000.00	3728975239.27	1043667.00000	1045145.00000	0.998585842156
2889880000.00	3728975240.55	1041887.00000	1042936.00000	0.998994185645
2889920000.00	3728975241.83	1039982.00000	1043976.00000	0.996174241553
2889960000.00	3728975243.11	1043988.00000	1044489.00000	0.999520339611
2890000000.00	3728975244.39	1042360.00000	1043505.00000	0.998902736451
