#Sample	Not specified
RF-Frequency	Timestamp	Photon Counter1 CH A	Photon Counter1 CH B	Photon Counter1 Ratio
Hz	s since 1904-01-01 12amUTC	counts	counts	a.u.
2850000000.00	3728972390.28	993464.000000	995273.000000	0.998182408244
2850200000.00	3728972391.57	996080.000000	995696.000000	1.00038565988
2850400000.00	3728972392.85	997633.000000	997947.000000	0.999685354032
2850600000.00	3728972394.12	998824.000000	997330.000000	1.00149799966
2850800000.00	3728972395.42	999800.000000	998912.000000	1.00088896720
2851000000.00	3728972396.68	1000776.00000	1001104.00000	0.999672361713
2851200000.00	3728972397.96	1000066.00000	1002184.00000	0.997886615631
2851400000.00	3728972399.24	995388.000000	995864.000000	0.999522023087
2851600000.00	3728972400.52	994755.000000	997963.000000	0.996785451966
2851800000.00	3728972401.80	997632.000000	998898.000000	0.998732603329
2852000000.00	3728972403.07	997458.000000	998579.000000	0.998877404792
2852200000.00	3728972404.35	998128.000000	998286.000000	0.999841728723
2852400000.00	3728972405.63	996200.000000	997958.000000	0.998238402819
2852600000.00	3728972406.92	1000171.00000	1002724.00000	0.997453935480
2852800000.00	3728972408.19	999478.000000	998997.000000	1.00048148293
2853000000.00	3728972409.49	1001823.00000	1003242.00000	0.998585585532
2853200000.00	3728972410.76	998971.000000	999784.000000	0.999186824354
2853400000.00	3728972412.04	1001194.00000	998473.000000	1.00272516132
2853600000.00	3728972413.33	1000401.00000	1001541.00000	0.998861754037
2853800000.00	3728972414.61	1002824.00000	1003186.00000	0.999639149669
2854000000.00	3728972415.88	995352.000000	998356.000000	0.996991053292
2854200000.00	3728972417.16	998134.000000	997858.000000	1.00027659246
2854400000.00	3728972418.43	996218.000000	999043.000000	0.997172293885
2854600000.00	3728972419.72	996343.000000	998911.000000	0.997429200399
2854800000.00	3728972421.02	996844.000000	995046.000000	1.00180695164
2855000000.00	3728972422.30	997068.000000	996404.000000	1.00066639636
2855200000.00	3728972423.58	996310.000000	998122.000000	0.998184590661
2855400000.00	3728972424.86	994977.000000	995923.000000	0.999050127369
2855600000.00	3728972426.14	995925.000000	997609.000000	0.998311963906
2855800000.00	3728972427.43	996874.000000	998354.000000	0.998517559904
2856000000.00	3728972428.70	999853.000000	1000675.00000	0.999178554476
2856200000.00	3728972429.98	995908.000000	995931.000000	0.999976906031
2856400000.00	3728972431.26	997202.000000	1001009.00000	0.996196837391
2856600000.00	3728972432.54	1000409.00000	1001024.00000	0.999385629116
2856800000.00	3728972433.83	1001971.00000	1002496.00000	0.999476307137
2857000000.00	3728972435.10	1003744.00000	1001991.00000	1.00174951671
2857200000.00	3728972436.37	997024.000000	997492.000000	0.999530823305
2857400000.00	3728972437.67	997375.000000	997766.000000	0.999608124550
2857600000.00	3728972438.96	999390.000000	998125.000000	1.00126737633
2857800000.00	3728972440.24	999539.000000	1001078.00000	0.998462657255
2858000000.00	3728972441.52	1001315.00000	1000216.00000	1.00109876267
2858200000.00	3728972442.81	1001682.00000	1002659.00000	0.999025590954
2858400000.00	3728972444.10	999631.000000	1003066.00000	0.996575499518
2858600000.00	3728972445.37	1001285.00000	1001732.00000	0.999553772865
2858800000.00	3728972446.66	1003263.00000	1003827.00000	0.999438150199
2859000000.00	3728972447.94	997679.000000	998348.000000	0.999329892983
2859200000.00	3728972449.24	993644.000000	993935.000000	0.999707224315
2859400000.00	3728972450.51	999309.000000	1001036.00000	0.998274787320
2859600000.00	3728972451.81	995094.000000	994805.000000	1.00029050920
2859800000.00	3728972453.10	994733.000000	994645.000000	1.00008847378
2860000000.00	3728972454.38	996504.000000	996079.000000	1.00042667298
2860200000.00	3728972455.67	994360.000000	994880.000000	0.999477323898
2860400000.00	3728972456.94	994117.000000	997110.000000	0.996998325160
2860600000.00	3728972458.22	993512.000000	996320.000000	0.997181628392
2860800000.00	3728972459.49	996002.000000	998262.000000	0.997736065281
2861000000.00	3728972460.77	997068.000000	996680.000000	1.00038929245
2861200000.00	3728972462.07	999664.000000	1002495.00000	0.997176045766
2861400000.00	3728972463.35	999750.000000	1000915.00000	0.998836065001
2861600000.00	3728972464.62	996539.000000	1000141.00000	0.996398507810
2861800000.00	3728972465.89	994814.000000	996298.000000	0.998510485819
2862000000.00	3728972467.17	993816.000000	995601.000000	0.998207113090
2862200000.00	3728972468.45	995627.000000	998628.000000	0.996994876971
2862400000.00	3728972469.72	992637.000000	994603.000000	0.998023331922
2862600000.00	3728972471.00	995457.000000	996043.000000	0.999411671986
2862800000.00	3728972472.27	989859.000000	993010.000000	0.996826819468
2863000000.00	3728972473.56	990147.000000	993591.000000	0.996533785028
2863200000.00	3728972474.83	989647.000000	993173.000000	0.996449762529
2863400000.00	3728972476.12	995304.000000	996123.000000	0.999177812379
2863600000.00	3728972477.39	994648.000000	995469.000000	0.999175263117
2863800000.00	3728972478.67	994931.000000	998618.000000	0.996307897514
2864000000.00	3728972479.94	992009.000000	995383.000000	0.996610349986
2864200000.00	3728972481.21	992568.000000	995549.000000	0.997005672247
2864400000.00	3728972482.50	989054.000000	992821.000000	0.996205761159
2864600000.00	3728972483.77	988949.000000	991066.000000	0.997863916228
2864800000.00	3728972485.06	989758.000000	995091.000000	0.994640691153
2865000000.00	3728972486.34	990764.000000	994969.000000	0.995773737674
2865200000.00	3728972487.62	988715.000000	993218.000000	0.995466252122
2865400000.00	3728972488.90	987617.000000	992357.000000	0.995223493158
2865600000.00	3728972490.18	992718.000000	996309.000000	0.996395696516
2865800000.00	3728972491.45	994101.000000	997891.000000	0.996201989997
2866000000.00	3728972492.75	992903.000000	999706.000000	0.993194999330
2866200000.00	3728972494.03	994086.000000	998908.000000	0.995172728620
2866400000.00	3728972495.29	988592.000000	994726.000000	0.993833477762
2866600000.00	3728972496.57	990884.000000	997154.000000	0.993712104650
2866800000.00	3728972497.85	989874.000000	993685.000000	0.996164780589
2867000000.00	3728972499.14	988381.000000	995258.000000	0.993090233889
2867200000.00	3728972500.43	986807.000000	992119.000000	0.994645803578
2867400000.00	3728972501.70	984598.000000	990906.000000	0.993634108583
2867600000.00	3728972502.99	986313.000000	991425.000000	0.994843785460
2867800000.00	3728972504.27	988822.000000	992868.000000	0.995924936648
2868000000.00	3728972505.54	987560.000000	993750.000000	0.993771069182
2868200000.00	3728972506.82	983160.000000	994852.000000	0.988247498120
2868400000.00	3728972508.09	981324.000000	989478.000000	0.991759291263
2868600000.00	3728972509.37	982560.000000	990983.000000	0.991500358735
2868800000.00	3728972510.65	986213.000000	992790.000000	0.993375235448
2869000000.00	3728972511.92	988866.000000	992215.000000	0.996624723472
2869200000.00	3728972513.20	986893.000000	991892.000000	0.994960136789
2869400000.00	3728972514.48	991205.000000	995131.000000	0.996054790776
2869600000.00	3728972515.77	991456.000000	994899.000000	0.996539347210
2869800000.00	3728972517.06	992774.000000	996342.000000	0.996418900337
2870000000.00	3728972518.34	987985.000000	994472.000000	0.993476940527
2870200000.00	3728972519.62	993899.000000	996023.000000	0.997867519124
2870400000.00	3728972520.90	998963.000000	1000931.00000	0.998033830504
2870600000.00	3728972522.18	993694.000000	995695.000000	0.997990348450
2870800000.00	3728972523.46	995636.000000	1000048.00000	0.995588211766
2871000000.00	3728972524.75	993713.000000	997695.000000	0.996008800285
2871200000.00	3728972526.02	989223.000000	992882.000000	0.996314768522
2871400000.00	3728972527.30	992254.000000	996102.000000	0.996136941799
2871600000.00	3728972528.59	992990.000000	995751.000000	0.997227218451
2871800000.00	3728972529.89	991114.000000	995585.000000	0.995509172999
2872000000.00	3728972531.18	990281.000000	993734.000000	0.996525227073
2872200000.00	3728972532.45	986320.000000	991476.000000	0.994799672408
2872400000.00	3728972533.74	988616.000000	996043.000000	0.992543494608
2872600000.00	3728972535.02	985741.000000	994112.000000	0.991579419623
2872800000.00	3728972536.30	983225.000000	989261.000000	0.993898475731
2873000000.00	3728972537.59	986044.000000	994107.000000	0.991889203074
2873200000.00	3728972538.87	986928.000000	991736.000000	0.995151935596
2873400000.00	3728972540.15	989965.000000	997855.000000	0.992093039570
2873600000.00	3728972541.43	987107.000000	997687.000000	0.989395471726
2873800000.00	3728972542.70	986629.000000	995887.000000	0.990703764584
2874000000.00	3728972543.99	992190.000000	998017.000000	0.994161422100
2874200000.00	3728972545.26	989903.000000	996653.000000	0.993227331880
2874400000.00	3728972546.53	991479.000000	997501.000000	0.993962913320
2874600000.00	3728972547.81	995226.000000	998769.000000	0.996452633191
2874800000.00	3728972549.10	990554.000000	995879.000000	0.994652964868
2875000000.00	3728972550.37	992891.000000	999262.000000	0.993624294730
2875200000.00	3728972551.66	995326.000000	1000675.00000	0.994654608140
2875400000.00	3728972552.94	991323.000000	995329.000000	0.995975200160
2875600000.00	3728972554.21	997086.000000	998687.000000	0.998396895123
2875800000.00	3728972555.48	994993.000000	999317.000000	0.995673044690
2876000000.00	3728972556.77	989221.000000	991660.000000	0.997540487667
2876200000.00	3728972558.04	990804.000000	994480.000000	0.996303595849
2876400000.00	3728972559.33	997538.000000	1001593.00000	0.995951449341
2876600000.00	3728972560.62	995307.000000	998104.000000	0.997197686814
2876800000.00	3728972561.90	992569.000000	996367.000000	0.996188151555
2877000000.00	3728972563.17	991884.000000	994549.000000	0.997320393465
2877200000.00	3728972564.45	993161.000000	997629.000000	0.995521381195
2877400000.00	3728972565.76	998198.000000	1000306.00000	0.997892644851
2877600000.00	3728972567.05	998291.000000	999708.000000	0.998582586115
2877800000.00	3728972568.33	996910.000000	997212.000000	0.999697155670
2878000000.00	3728972569.60	993712.000000	1000168.00000	0.993545084426
2878200000.00	3728972570.89	999579.000000	1003135.00000	0.996455113220
2878400000.00	3728972572.17	1001660.00000	1002564.00000	0.999098311928
2878600000.00	3728972573.47	1002963.00000	1005524.00000	0.997453069245
2878800000.00	3728972574.75	999171.000000	1000147.00000	0.999024143451
2879000000.00	3728972576.04	997540.000000	1000447.00000	0.997094298848
2879200000.00	3728972577.33	996663.000000	998928.000000	0.997732569314
2879400000.00	3728972578.61	998213.000000	1000221.00000	0.997992443670
2879600000.00	3728972579.89	998566.000000	1000957.00000	0.997611285999
2879800000.00	3728972581.17	1000058.00000	1001943.00000	0.998118655452
2880000000.00	3728972582.45	1001376.00000	1003435.00000	0.997948048454
2880200000.00	3728972583.73	994254.000000	996543.000000	0.997703059477
2880400000.00	3728972585.01	996046.000000	996466.000000	0.999578510456
2880600000.00	3728972586.30	997303.000000	1000152.00000	0.997151432982
2880800000.00	3728972587.58	995533.000000	999129.000000	0.996400865154
2881000000.00	3728972588.87	1003563.00000	1005435.00000	0.998138119321
2881200000.00	3728972590.15	1002579.00000	1004573.00000	0.998015077053
2881400000.00	3728972591.43	1005808.00000	1006277.00000	0.999533925549
2881600000.00	3728972592.72	995827.000000	995800.000000	1.00002711388
2881800000.00	3728972594.00	997116.000000	999571.000000	0.997543946353
2882000000.00	3728972595.28	998221.000000	998925.000000	0.999295242386
2882200000.00	3728972596.57	996876.000000	998630.000000	0.998243593723
2882400000.00	3728972597.86	1001511.00000	1002725.00000	0.998789299160
2882600000.00	3728972599.14	1003631.00000	1005112.00000	0.998526532367
2882800000.00	3728972600.42	1002177.00000	1000837.00000	1.00133887936
2883000000.00	3728972601.71	996626.000000	996923.000000	0.999702083310
2883200000.00	3728972603.00	998076.000000	999599.000000	0.998476389032
2883400000.00	3728972604.28	1001383.00000	1001665.00000	0.999718468750
2883600000.00	3728972605.56	1000395.00000	1001900.00000	0.998497854077
2883800000.00	3728972606.85	1004718.00000	1002600.00000	1.00211250748
2884000000.00	3728972608.14	999465.000000	1000842.00000	0.998624158459
2884200000.00	3728972609.42	998313.000000	999617.000000	0.998695500377
2884400000.00	3728972610.72	1001341.00000	1002718.00000	0.998626732541
2884600000.00	3728972612.00	1003257.00000	1006218.00000	0.997057297723
2884800000.00	3728972613.27	1000550.00000	1001422.00000	0.999129238223
2885000000.00	3728972614.55	999079.000000	997427.000000	1.00165626156
2885200000.00	3728972615.83	1000683.00000	1001037.00000	0.999646366718
2885400000.00	3728972617.10	997849.000000	999179.000000	0.998668907173
2885600000.00	3728972618.38	998824.000000	998797.000000	1.00002703252
2885800000.00	3728972619.66	997736.000000	999090.000000	0.998644766738
2886000000.00	3728972620.93	1003693.00000	1004635.00000	0.999062346026
2886200000.00	3728972622.21	994731.000000	997416.000000	0.997308043986
2886400000.00	3728972623.51	993169.000000	995727.000000	0.997431022760
2886600000.00	3728972624.79	997959.000000	1000105.00000	0.997854225306
2886800000.00	3728972626.06	994686.000000	997091.000000	0.997587983444
2887000000.00	3728972627.33	997027.000000	997589.000000	0.999436641743
2887200000.00	3728972628.61	995586.000000	996986.000000	0.998595767644
2887400000.00	3728972629.89	996383.000000	997552.000000	0.998828131265
2887600000.00	3728972631.17	997843.000000	999433.000000	0.998409097959
2887800000.00	3728972632.47	995168.000000	996394.000000	0.998769563044
2888000000.00	3728972633.74	997589.000000	998916.000000	0.998671559971
2888200000.00	3728972635.01	995195.000000	996698.000000	0.998492020652
2888400000.00	3728972636.30	996824.000000	999907.000000	0.996916713254
2888600000.00	3728972637.57	996928.000000	996288.000000	1.00064238453
2888800000.00	3728972638.85	995875.000000	998976.000000	0.996895821321
2889000000.00	3728972640.14	996965.000000	999580.000000	0.997383901239
2889200000.00	3728972641.42	994525.000000	996354.000000	0.998164307064
2889400000.00	3728972642.71	995798.000000	996143.000000	0.999653664183
2889600000.00	3728972643.99	997362.000000	998226.000000	0.999134464540
2889800000.00	3728972645.29	998013.000000	998828.000000	0.999184043699
2890000000.00	3728972646.58	994149.000000	996084.000000	0.998057392750
